!      BATCH    VOLUME           CONV RATIO      POWER             BURNUP         FASTDOSE         LAYER     POWER
!                 CM3             KFA DEF.     BATCH/AVG            MWD/T           1/CM2                  LAYER/AVG


         1     150038.        0.151162        0.672659         239.580        0.434750E+19
         2     150038.        0.221972        0.619413         17546.3        0.385081E+21
         3     150038.        0.285530        0.541503         33263.5        0.766169E+21
         4     150038.        0.346953        0.471931         47140.6        0.114755E+22
         5     150038.        0.403075        0.413497         59406.7        0.152946E+22
         6     150020.        0.455331        0.365060         70330.5        0.191236E+22
         7     1.00000         1.94230        0.452071E-04     20.5760        0.434750E+19           1    0.514013    
         8     150038.        0.198445         1.31505         948.250        0.176820E+20
         9     150038.        0.237766         1.20622         18199.2        0.398442E+21
        10     150038.        0.303120         1.05352         33836.1        0.779569E+21
        11     150038.        0.366442        0.917780         47641.2        0.116099E+22
        12     150038.        0.424746        0.803866         59847.1        0.154293E+22
        13     150020.        0.479397        0.709493         70720.4        0.192584E+22
        14     1.00000         2.34851        0.939720E-04     83.8685        0.176820E+20           2     1.00099    
        15     150038.        0.227188         1.90059         2094.74        0.400510E+20
        16     150038.        0.266280         1.75503         19257.3        0.420838E+21
        17     150038.        0.332928         1.54173         34765.3        0.801998E+21
        18     150038.        0.397275         1.34993         48454.7        0.118344E+22
        19     150038.        0.456473         1.18800         60563.2        0.156541E+22
        20     150020.        0.511827         1.05340         71355.1        0.194832E+22
        21     1.00000         2.29009        0.153465E-03     196.451        0.400510E+20           3     1.46479    
        22     150038.        0.239633         2.42080         3635.84        0.704222E+20
        23     150038.        0.284463         2.21651         20675.5        0.451234E+21
        24     150038.        0.353030         1.94449         36011.7        0.832418E+21
        25     150038.        0.418931         1.70229         49547.2        0.121389E+22
        26     150038.        0.479918         1.49817         61526.0        0.159588E+22
        27     150020.        0.537255         1.32868         72209.7        0.197877E+22
        28     1.00000         2.02092        0.225467E-03     369.688        0.704222E+20           4     1.85183    
        29     150038.        0.259572         2.64021         5440.19        0.106362E+21
        30     150038.        0.308606         2.41909         22329.7        0.487196E+21
        31     150038.        0.377998         2.13087         37467.2        0.868396E+21
        32     150038.        0.444034         1.87341         50825.4        0.124988E+22
        33     150038.        0.504990         1.65567         62654.6        0.163189E+22
        34     150020.        0.562100         1.47454         73213.6        0.201476E+22
        35     1.00000         1.78591        0.291619E-03     606.861        0.106362E+21           5     2.03231    
        36     150038.        0.268631         2.74052         7358.92        0.144857E+21
        37     150038.        0.323689         2.48810         24080.3        0.525709E+21
        38     150038.        0.394242         2.18874         39008.7        0.906916E+21
        39     150038.        0.460908         1.92439         52181.7        0.128841E+22
        40     150038.        0.522682         1.70140         63854.7        0.167043E+22
        41     150020.        0.580746         1.51621         74283.7        0.205329E+22
        42     1.00000         1.58769        0.345841E-03     900.137        0.144857E+21           6     2.09323    
        43     150038.        0.283841         2.60364         9264.12        0.183229E+21
        44     150038.        0.343198         2.35872         25808.6        0.564092E+21
        45     150038.        0.414366         2.07970         40531.3        0.945301E+21
        46     150038.        0.480987         1.83384         53523.2        0.132681E+22
        47     150038.        0.542586         1.62627         65043.8        0.170883E+22
        48     150020.        0.600318         1.45383         75346.2        0.209169E+22
        49     1.00000         1.44649        0.375539E-03     1232.22        0.183229E+21           7     1.99267    
        50     150038.        0.291744         2.41089         11052.0        0.219410E+21
        51     150038.        0.355110         2.16991         27423.3        0.600282E+21
        52     150038.        0.426691         1.91170         41954.8        0.981486E+21
        53     150038.        0.493382         1.68617         54779.3        0.136299E+22
        54     150038.        0.555208         1.49621         66159.4        0.174503E+22
        55     150020.        0.613254         1.33865         76345.7        0.212790E+22
        56     1.00000         1.34930        0.380598E-03     1580.36        0.219410E+21           8     1.83559    
        57     150038.        0.304895         2.10939         12663.5        0.252139E+21
        58     150038.        0.371354         1.89558         28872.8        0.633013E+21
        59     150038.        0.443449         1.67276         43233.0        0.101421E+22
        60     150038.        0.510186         1.47859         55908.6        0.139571E+22
        61     150038.        0.571942         1.31503         67164.0        0.177776E+22
        62     150020.        0.629771         1.17940         77247.8        0.216067E+22
        63     1.00000         1.28359        0.363878E-03     1922.94        0.252139E+21           9     1.60847    
        64     150038.        0.311240         1.83320         14069.2        0.280847E+21
        65     150038.        0.379829         1.64102         30134.0        0.661722E+21
        66     150038.        0.451868         1.44764         44346.0        0.104291E+22
        67     150038.        0.518400         1.28006         56893.3        0.142440E+22
        68     150038.        0.580081         1.13914         68041.8        0.180647E+22
        69     150020.        0.637889         1.02241         78038.3        0.218945E+22
        70     1.00000         1.23624        0.334507E-03     2244.15        0.280847E+21          10     1.39392    
        71     150038.        0.319345         1.55101         15276.0        0.305534E+21
        72     150038.        0.389565         1.38637         31213.7        0.686407E+21
        73     150038.        0.461629         1.22387         45299.3        0.106758E+22
        74     150038.        0.527980         1.08342         57737.5        0.144907E+22
        75     150038.        0.589474        0.965371         68795.7        0.183118E+22
        76     150020.        0.647039        0.867644         78718.7        0.221424E+22
        77     1.00000         1.20216        0.298159E-03     2534.99        0.305534E+21          11     1.17962    
        78     150038.        0.323626         1.30800         16295.7        0.326457E+21
        79     150038.        0.394854         1.16662         32124.7        0.707326E+21
        80     150038.        0.466679         1.02976         46104.0        0.108850E+22
        81     150038.        0.532746        0.911862         58451.1        0.146998E+22
        82     150038.        0.594051        0.812879         69434.5        0.185215E+22
        83     150020.        0.651459        0.731005         79296.7        0.223532E+22
        84     1.00000         1.17624        0.260312E-03     2791.63        0.326457E+21          12    0.993359    
        85     150038.        0.328965         1.08548         17149.5        0.343996E+21
        86     150038.        0.400991        0.967323         32886.4        0.724862E+21
        87     150038.        0.472685        0.854238         46777.5        0.110603E+22
        88     150038.        0.538533        0.756978         59049.2        0.148753E+22
        89     150038.        0.599634        0.675357         69971.3        0.186979E+22
        90     150020.        0.656804        0.607880         79783.4        0.225307E+22
        91     1.00000         1.15725        0.223103E-03     3013.73        0.343996E+21          13    0.824546    
        92     150038.        0.332349        0.895345         17856.4        0.358541E+21
        93     150038.        0.404897        0.796888         33516.8        0.739407E+21
        94     150038.        0.476418        0.703696         47335.6        0.112059E+22
        95     150038.        0.542095        0.623708         59545.8        0.150212E+22
        96     150038.        0.603096        0.556630         70418.2        0.188448E+22
        97     150020.        0.660180        0.501212         80189.4        0.226788E+22
        98     1.00000         1.14412        0.188051E-03     3202.62        0.358541E+21          14    0.679583    
        99     150038.        0.336342        0.727662         18435.9        0.370464E+21
       100     150038.        0.409279        0.647297         34033.4        0.751339E+21
       101     150038.        0.480682        0.571747         47793.6        0.113254E+22
       102     150038.        0.546225        0.506973         59954.4        0.151412E+22
       103     150038.        0.607121        0.452672         70786.8        0.189659E+22
       104     150020.        0.664082        0.407832         80525.0        0.228011E+22
       105     1.00000         1.13499        0.155906E-03     3360.65        0.370464E+21          15    0.552366    
       106     150038.        0.338527        0.588365         18906.0        0.380133E+21
       107     150038.        0.411729        0.523000         34453.0        0.761027E+21
       108     150038.        0.482997        0.461946         48166.1        0.114226E+22
       109     150038.        0.548417        0.409665         60287.4        0.152390E+22
       110     150038.        0.609235        0.365858         71088.0        0.190648E+22
       111     150020.        0.666119        0.329703         80799.8        0.229009E+22
       112     1.00000         1.12707        0.127782E-03     3491.02        0.380133E+21          16    0.446425    
       113     150038.        0.340560        0.476367         19286.5        0.387974E+21
       114     150038.        0.413792        0.423208         34793.3        0.768902E+21
       115     150038.        0.484838        0.373799         48468.5        0.115016E+22
       116     150038.        0.550095        0.331528         60558.4        0.153187E+22
       117     150038.        0.610811        0.296124         71333.6        0.191456E+22
       118     150020.        0.667608        0.266918         81023.9        0.229825E+22
       119     1.00000         1.12185        0.104589E-03     3597.84        0.387974E+21          17    0.361326    
       120     150038.        0.350425        0.369952         19589.5        0.394319E+21
       121     150038.        0.424574        0.328495         35064.7        0.775289E+21
       122     150038.        0.496514        0.290120         48710.2        0.115658E+22
       123     150038.        0.562771        0.257318         60775.3        0.153835E+22
       124     150038.        0.624553        0.229858         71530.5        0.192114E+22
       125     150020.        0.682411        0.207214         81203.6        0.230487E+22
       126     1.00000         1.14545        0.819001E-04     3683.66        0.394319E+21          18    0.280494    
       127     150038.        0.320142        0.317191         19835.9        0.399138E+21
       128     150038.        0.391075        0.281550         35285.9        0.780154E+21
       129     150038.        0.458972        0.248656         48907.5        0.116148E+22
       130     150038.        0.520970        0.220553         60952.7        0.154331E+22
       131     150038.        0.578444        0.197031         71691.4        0.192617E+22
       132     150020.        0.632061        0.177639         81350.6        0.230994E+22
       133     1.00000         1.03830        0.706102E-04     3753.95        0.399138E+21          19    0.240438    
       134     150038.        0.306948        0.234834         20034.5        0.402451E+21
       135     150038.        0.376707        0.208457         35464.5        0.783514E+21
       136     150038.        0.442912        0.184140         49067.1        0.116488E+22
       137     150038.        0.503031        0.163365         61096.4        0.154676E+22
       138     150038.        0.558538        0.145976         71821.8        0.192966E+22
       139     150020.        0.610174        0.131642         81469.7        0.231344E+22
       140     1.00000        0.987247        0.526191E-04     3810.87        0.402451E+21          20    0.178070    
       141     150038.        0.186475        0.549858         195.788        0.437538E+19
       142     150038.        0.266915        0.504942         17505.4        0.385109E+21
       143     150038.        0.335539        0.440811         33227.5        0.766197E+21
       144     150038.        0.403293        0.383773         47109.1        0.114758E+22
       145     150038.        0.466475        0.335942         59379.0        0.152949E+22
       146     150038.        0.526252        0.296330         70305.9        0.191239E+22
       147     6.06250         2.39650        0.371553E-04     16.9080        0.437538E+19          21    0.418607    
       148     150038.        0.245504         1.08616         778.924        0.179254E+20
       149     150038.        0.286824        0.994255         18041.7        0.398685E+21
       150     150038.        0.357659        0.867379         33697.7        0.779813E+21
       151     150038.        0.427853        0.754976         47520.0        0.116123E+22
       152     150038.        0.493797        0.660789         59740.5        0.154317E+22
       153     150038.        0.556561        0.582824         70626.0        0.192609E+22
       154     6.06250         2.90713        0.780428E-04     69.2753        0.179254E+20          22    0.824391    
       155     150038.        0.275247         1.62480         1745.31        0.411334E+20
       156     150038.        0.315265         1.49733         18932.0        0.421920E+21
       157     150038.        0.387295         1.31360         34478.8        0.803080E+21
       158     150038.        0.458416         1.14907         48203.5        0.118453E+22
       159     150038.        0.525048         1.01044         60341.9        0.156650E+22
       160     150038.        0.588192        0.895334         71158.9        0.194940E+22
       161     6.06250         2.77629        0.131900E-03     164.721        0.411334E+20          23     1.24842    
       162     150038.        0.288259         2.10163         3074.05        0.732018E+20
       163     150038.        0.333433         1.92398         20153.8        0.454014E+21
       164     150038.        0.407124         1.68699         35551.8        0.835198E+21
       165     150038.        0.479506         1.47639         49143.7        0.121667E+22
       166     150038.        0.547538         1.29917         61170.3        0.159866E+22
       167     150038.        0.612176         1.15213         71894.0        0.198155E+22
       168     6.06250         2.42239        0.197399E-03     315.155        0.732018E+20          24     1.60671    
       169     150038.        0.309924         2.31454         4648.48        0.111482E+21
       170     150038.        0.358516         2.12344         21598.3        0.492316E+21
       171     150038.        0.432764         1.87071         36822.7        0.873516E+21
       172     150038.        0.504953         1.64507         50259.8        0.125500E+22
       173     150038.        0.572467         1.45447         62156.2        0.163701E+22
       174     150038.        0.636233         1.29599         72771.2        0.201988E+22
       175     6.06250         2.11529        0.258806E-03     524.324        0.111482E+21          25     1.78402    
       176     150038.        0.318941         2.41089         6333.63        0.152636E+21
       177     150038.        0.373216         2.19544         23139.3        0.533488E+21
       178     150038.        0.448271         1.93330         38180.7        0.914695E+21
       179     150038.        0.520632         1.70149         51455.5        0.129619E+22
       180     150038.        0.588379         1.50605         63215.2        0.167821E+22
       181     150038.        0.652409         1.34375         73716.4        0.206107E+22
       182     6.06250         1.85949        0.309529E-03     785.791        0.152636E+21          26     1.84847    
       183     150038.        0.334953         2.29356         8011.04        0.193688E+21
       184     150038.        0.393054         2.08727         24666.9        0.574552E+21
       185     150038.        0.468378         1.84388         39528.5        0.955761E+21
       186     150038.        0.540222         1.62872         52644.8        0.133727E+22
       187     150038.        0.607169         1.44702         64271.2        0.171929E+22
       188     150038.        0.670108         1.29602         74661.6        0.210215E+22
       189     6.06250         1.67582        0.338089E-03     1083.98        0.193688E+21          27     1.76607    
       190     150038.        0.341897         2.12810         9587.87        0.232394E+21
       191     150038.        0.403959         1.92609         26098.4        0.613266E+21
       192     150038.        0.479386         1.70128         40793.4        0.994470E+21
       193     150038.        0.550846         1.50408         53763.4        0.137597E+22
       194     150038.        0.617456         1.33785         65266.9        0.175801E+22
       195     150038.        0.680066         1.19985         75555.8        0.214088E+22
       196     6.06250         1.54687        0.344508E-03     1398.35        0.232394E+21          28     1.63286    
       197     150038.        0.354916         1.86655         11012.3        0.267412E+21
       198     150038.        0.419839         1.68845         27387.6        0.648287E+21
       199     150038.        0.495452         1.49486         41933.7        0.102948E+22
       200     150038.        0.566495         1.32521         54773.5        0.141098E+22
       201     150038.        0.632457         1.18211         66168.2        0.179303E+22
       202     150038.        0.694185         1.06327         76367.6        0.217595E+22
       203     6.06250         1.45686        0.331271E-03     1709.43        0.267412E+21          29     1.43673    
       204     150038.        0.360132         1.62638         12258.1        0.298145E+21
       205     150038.        0.427304         1.46622         28513.0        0.679020E+21
       206     150038.        0.502663         1.29821         42930.4        0.106021E+22
       207     150038.        0.573173         1.15173         55658.3        0.144170E+22
       208     150038.        0.638655         1.02833         66959.4        0.182377E+22
       209     150038.        0.699912        0.925950         77082.5        0.220675E+22
       210     6.06250         1.39207        0.305891E-03     2002.60        0.298145E+21          30     1.24946    
       211     150038.        0.367993         1.37778         13329.6        0.324580E+21
       212     150038.        0.436875         1.24098         29479.0        0.705453E+21
       213     150038.        0.512134         1.10007         43786.5        0.108663E+22
       214     150038.        0.582213        0.977451         56419.2        0.146811E+22
       215     150038.        0.647171        0.874156         67641.7        0.185022E+22
       216     150038.        0.707796        0.788470         77700.8        0.223329E+22
       217     6.06250         1.34510        0.273617E-03     2269.09        0.324580E+21          31     1.05981    
       218     150038.        0.371387         1.16378         14236.3        0.346987E+21
       219     150038.        0.441427         1.04616         30295.3        0.727856E+21
       220     150038.        0.516333        0.927491         44510.9        0.110903E+22
       221     150038.        0.585915        0.824554         57064.2        0.149051E+22
       222     150038.        0.650424        0.737912         68221.6        0.187268E+22
       223     150038.        0.710608        0.666087         78227.7        0.225585E+22
       224     6.06250         1.30939        0.239498E-03     2504.97        0.346987E+21          32    0.894324    
       225     150038.        0.376305        0.967327         14996.8        0.365767E+21
       226     150038.        0.447263        0.869128         30979.3        0.746633E+21
       227     150038.        0.521962        0.771142         45118.6        0.112780E+22
       228     150038.        0.591146        0.686248         57606.2        0.150930E+22
       229     150038.        0.655208        0.614801         68710.2        0.189156E+22
       230     150038.        0.714876        0.555586         78673.0        0.227484E+22
       231     6.06250         1.28198        0.205929E-03     2709.67        0.365767E+21          33    0.744034    
       232     150038.        0.379327        0.798830         15627.2        0.381346E+21
       233     150038.        0.450948        0.716900         31546.2        0.762212E+21
       234     150038.        0.525432        0.636138         45623.0        0.114340E+22
       235     150038.        0.594338        0.566307         58057.3        0.152493E+22
       236     150038.        0.658166        0.507570         69118.3        0.190728E+22
       237     150038.        0.717601        0.458913         79045.7        0.229069E+22
       238     6.06250         1.26403        0.173862E-03     2884.20        0.381346E+21          34    0.614106    
       239     150038.        0.385238        0.645991         16143.1        0.394121E+21
       240     150038.        0.457530        0.579542         32010.3        0.774996E+21
       241     150038.        0.532096        0.514491         46036.7        0.115620E+22
       242     150038.        0.601018        0.458294         58428.2        0.153778E+22
       243     150038.        0.664859        0.411029         69454.8        0.192025E+22
       244     150038.        0.724265        0.371889         79353.7        0.230376E+22
       245     6.06250         1.25714        0.143579E-03     3030.09        0.394121E+21          35    0.496869    
       246     150038.        0.396402        0.505226         16554.5        0.404437E+21
       247     150038.        0.469784        0.452897         32380.8        0.785331E+21
       248     150038.        0.545189        0.402061         46367.6        0.116656E+22
       249     150038.        0.615027        0.358203         58725.7        0.154820E+22
       250     150038.        0.679853        0.321334         69725.5        0.193079E+22
       251     150038.        0.740233        0.290818         79601.9        0.231440E+22
       252     6.06250         1.27709        0.113810E-03     3148.40        0.404437E+21          36    0.388421    
       253     150038.        0.410706        0.377051         16870.0        0.412512E+21
       254     150038.        0.485255        0.337885         32665.7        0.793440E+21
       255     150038.        0.561793        0.300012         46622.5        0.117470E+22
       256     150038.        0.632861        0.267362         58955.6        0.155640E+22
       257     150038.        0.698968        0.239922         69935.4        0.193910E+22
       258     150038.        0.760596        0.217217         79794.7        0.232278E+22
       259     6.06250         1.30767        0.859814E-04     3240.30        0.412512E+21          37    0.289906    
       260     150038.        0.382890        0.262505         17099.2        0.417953E+21
       261     150038.        0.454870        0.235421         32873.6        0.798923E+21
       262     150038.        0.527696        0.209211         46809.2        0.118022E+22
       263     150038.        0.594622        0.186595         59124.7        0.156199E+22
       264     150038.        0.656395        0.167578         70090.3        0.194477E+22
       265     150038.        0.713655        0.151839         79937.4        0.232851E+22
       266     6.06250         1.19703        0.606893E-04     3307.87        0.417953E+21          38    0.202190    
       267     150038.        0.196765        0.498957         177.648        0.418031E+19
       268     150038.        0.282163        0.458037         17488.7        0.384914E+21
       269     150038.        0.352465        0.399791         33212.9        0.766002E+21
       270     150038.        0.422306        0.348017         47096.4        0.114739E+22
       271     150038.        0.487800        0.304610         59367.8        0.152929E+22
       272     150038.        0.550028        0.268666         70296.1        0.191220E+22
       273     6.31250         2.53053        0.337584E-04     15.3653        0.418031E+19          39    0.379677    
       274     150038.        0.258753        0.992310         709.151        0.171953E+20
       275     150038.        0.300637        0.908250         17977.5        0.397955E+21
       276     150038.        0.372985        0.792251         33641.6        0.779083E+21
       277     150038.        0.445085        0.689520         47471.1        0.116050E+22
       278     150038.        0.513140        0.603454         59697.6        0.154244E+22
       279     150038.        0.578141        0.532220         70588.2        0.192536E+22
       280     6.31250         3.07621        0.712245E-04     63.0977        0.171953E+20          40    0.752996    
       281     150038.        0.286328         1.52145         1605.20        0.397918E+20
       282     150038.        0.326179         1.40262         18803.4        0.420578E+21
       283     150038.        0.399288         1.23053         34366.3        0.801738E+21
       284     150038.        0.471829         1.07640         48105.3        0.118318E+22
       285     150038.        0.540023        0.946542         60255.8        0.156516E+22
       286     150038.        0.604798        0.838722         71082.8        0.194806E+22
       287     6.31250         2.91153        0.122932E-03     151.341        0.397918E+20          41     1.16937    
       288     150038.        0.298853         1.98970         2857.13        0.713930E+20
       289     150038.        0.343634         1.82302         19955.3        0.452205E+21
       290     150038.        0.418302         1.59871         35378.1        0.833389E+21
       291     150038.        0.491993         1.39925         48992.0        0.121486E+22
       292     150038.        0.561444         1.23139         61037.2        0.159685E+22
       293     150038.        0.627544         1.09212         71776.3        0.197974E+22
       294     6.31250         2.53607        0.185657E-03     292.268        0.713930E+20          42     1.52235    
       295     150038.        0.320750         2.20379         4352.16        0.109344E+21
       296     150038.        0.368639         2.02437         21328.5        0.490179E+21
       297     150038.        0.443756         1.78395         36586.6        0.871378E+21
       298     150038.        0.517151         1.56904         50053.6        0.125286E+22
       299     150038.        0.585955         1.38748         61975.1        0.163487E+22
       300     150038.        0.651025         1.23651         72610.9        0.201774E+22
       301     6.31250         2.21123        0.244618E-03     489.503        0.109344E+21          43     1.70085    
       302     150038.        0.329749         2.30155         5958.84        0.150274E+21
       303     150038.        0.383265         2.09907         22799.9        0.531125E+21
       304     150038.        0.459168         1.84919         37883.7        0.912332E+21
       305     150038.        0.532699         1.62789         51196.0        0.129383E+22
       306     150038.        0.601674         1.44127         62987.2        0.167585E+22
       307     150038.        0.666924         1.28626         73514.5        0.205870E+22
       308     6.31250         1.93991        0.293469E-03     737.034        0.150274E+21          44     1.76752    
       309     150038.        0.345975         2.19259         7561.31        0.191168E+21
       310     150038.        0.403188         1.99895         24261.7        0.572031E+21
       311     150038.        0.479312         1.76677         39174.2        0.953240E+21
       312     150038.        0.552266         1.56115         52335.0        0.133474E+22
       313     150038.        0.620356         1.38744         63998.8        0.171677E+22
       314     150038.        0.684411         1.24303         74420.4        0.209963E+22
       315     6.31250         1.74482        0.321197E-03     1020.05        0.191168E+21          45     1.69164    
       316     150038.        0.352650         2.03763         9069.94        0.229769E+21
       317     150038.        0.413867         1.84773         25633.9        0.610640E+21
       318     150038.        0.490078         1.63304         40387.3        0.991845E+21
       319     150038.        0.562600         1.44434         53408.3        0.137335E+22
       320     150038.        0.630282         1.28521         64954.7        0.175539E+22
       321     150038.        0.693922         1.15306         75279.1        0.213826E+22
       322     6.31250         1.60646        0.328087E-03     1319.10        0.229769E+21          46     1.56683    
       323     150038.        0.365458         1.79087         10435.2        0.264737E+21
       324     150038.        0.429495         1.62329         26872.0        0.645612E+21
       325     150038.        0.505839         1.43813         41483.1        0.102681E+22
       326     150038.        0.577869         1.27553         54379.5        0.140831E+22
       327     150038.        0.644806         1.13829         65821.6        0.179036E+22
       328     150038.        0.707454         1.02428         76060.4        0.217327E+22
       329     6.31250         1.50906        0.316341E-03     1615.77        0.264737E+21          47     1.38172    
       330     150038.        0.370307         1.56332         11631.6        0.295466E+21
       331     150038.        0.436667         1.41227         27955.0        0.676341E+21
       332     150038.        0.512747         1.25133         42443.0        0.105753E+22
       333     150038.        0.584200         1.11072         55232.0        0.143902E+22
       334     150038.        0.650594        0.992196         66584.5        0.182109E+22
       335     150038.        0.712699        0.893808         76750.1        0.220407E+22
       336     6.31250         1.43875        0.292834E-03     1896.08        0.295466E+21          48     1.20393    
       337     150038.        0.377896         1.32676         12662.5        0.321931E+21
       338     150038.        0.445993         1.19752         28886.3        0.702804E+21
       339     150038.        0.521947         1.06235         43269.0        0.108398E+22
       340     150038.        0.592918        0.944461         55966.6        0.146546E+22
       341     150038.        0.658724        0.845088         67243.6        0.184757E+22
       342     150038.        0.720126        0.762610         77347.7        0.223064E+22
       343     6.31250         1.38751        0.262545E-03     2151.50        0.321931E+21          49     1.02312    
       344     150038.        0.381033         1.12229         13536.2        0.344389E+21
       345     150038.        0.450361         1.01097         29674.6        0.725258E+21
       346     150038.        0.525961        0.896988         43969.1        0.110643E+22
       347     150038.        0.596408        0.797905         56590.4        0.148791E+22
       348     150038.        0.661727        0.714450         67804.7        0.187008E+22
       349     150038.        0.722645        0.645225         77858.1        0.225325E+22
       350     6.31250         1.34874        0.230238E-03     2378.04        0.344389E+21          50    0.864632    
       351     150038.        0.386150        0.933342         14269.8        0.363236E+21
       352     150038.        0.456458        0.840335         30335.9        0.744102E+21
       353     150038.        0.531881        0.746193         44557.0        0.112527E+22
       354     150038.        0.601946        0.664451         57115.2        0.150677E+22
       355     150038.        0.666828        0.595605         68278.3        0.188903E+22
       356     150038.        0.727237        0.538510         78289.9        0.227231E+22
       357     6.31250         1.32028        0.198136E-03     2574.93        0.363236E+21          51    0.719734    
       358     150038.        0.388698        0.772606         14878.7        0.378892E+21
       359     150038.        0.459699        0.694798         30884.6        0.759758E+21
       360     150038.        0.534873        0.617032         45045.8        0.114094E+22
       361     150038.        0.604604        0.549647         57552.6        0.152247E+22
       362     150038.        0.669187        0.492922         68674.3        0.190483E+22
       363     150038.        0.729294        0.445902         78652.0        0.228823E+22
       364     6.31250         1.29941        0.167738E-03     2743.07        0.378892E+21          52    0.595480    
       365     150038.        0.393126        0.627838         15378.8        0.391737E+21
       366     150038.        0.464719        0.564430         31335.5        0.772612E+21
       367     150038.        0.539816        0.501503         45448.1        0.115382E+22
       368     150038.        0.609375        0.447020         57913.6        0.153539E+22
       369     150038.        0.673770        0.401160         69002.1        0.191787E+22
       370     150038.        0.733643        0.363157         78952.1        0.230138E+22
       371     6.31250         1.28638        0.139246E-03     2884.16        0.391737E+21          53    0.484181    
       372     150038.        0.397359        0.499370         15781.6        0.402074E+21
       373     150038.        0.469522        0.448625         31699.1        0.782968E+21
       374     150038.        0.544700        0.398642         45773.1        0.116420E+22
       375     150038.        0.614321        0.355420         58206.1        0.154584E+22
       376     150038.        0.678806        0.319051         69268.7        0.192842E+22
       377     150038.        0.738759        0.288926         79196.9        0.231203E+22
       378     6.31250         1.28211        0.112324E-03     2999.80        0.402074E+21          54    0.385003    
       379     150038.        0.404013        0.377389         16095.2        0.410084E+21
       380     150038.        0.476740        0.338960         31982.8        0.791012E+21
       381     150038.        0.552210        0.301274         46027.3        0.117227E+22
       382     150038.        0.622122        0.268703         58435.5        0.155397E+22
       383     150038.        0.686909        0.241301         69478.3        0.193667E+22
       384     150038.        0.747134        0.218609         79389.4        0.232035E+22
       385     6.31250         1.28692        0.859713E-04     3091.01        0.410084E+21          55    0.291037    
       386     150038.        0.384378        0.252651         16320.9        0.415439E+21
       387     150038.        0.455292        0.227078         32188.1        0.796408E+21
       388     150038.        0.528003        0.201989         46211.8        0.117770E+22
       389     150038.        0.594812        0.180287         58602.9        0.155947E+22
       390     150038.        0.656343        0.162021         69631.7        0.194226E+22
       391     150038.        0.713275        0.146891         79530.8        0.232599E+22
       392     6.31250         1.20350        0.583185E-04     3157.48        0.415439E+21          56    0.195151    
       393     150038.        0.189799        0.434784         154.789        0.343659E+19
       394     150038.        0.282322        0.399305         17467.7        0.384170E+21
       395     150038.        0.352637        0.348590         33194.6        0.765258E+21
       396     150038.        0.422471        0.303483         47080.5        0.114664E+22
       397     150038.        0.487918        0.265658         59353.9        0.152855E+22
       398     150038.        0.550067        0.234332         70283.8        0.191145E+22
       399     5.87500         2.44667        0.293128E-04     13.3537        0.343659E+19          57    0.331023    
       400     150038.        0.245142        0.886266         625.621        0.142631E+20
       401     150038.        0.286501        0.811895         17901.3        0.395023E+21
       402     150038.        0.357270        0.708382         33575.1        0.776151E+21
       403     150038.        0.427464        0.616606         47413.4        0.115757E+22
       404     150038.        0.493394        0.539695         59647.1        0.153951E+22
       405     150038.        0.556129        0.476027         70543.7        0.192242E+22
       406     5.87500         2.95458        0.628404E-04     55.2950        0.142631E+20          58    0.673141    
       407     150038.        0.259264         1.46161         1462.60        0.337373E+20
       408     150038.        0.297754         1.34944         18673.9        0.414524E+21
       409     150038.        0.367970         1.18427         34253.6        0.795684E+21
       410     150038.        0.436995         1.03602         48007.3        0.117713E+22
       411     150038.        0.501302        0.911059         60170.0        0.155910E+22
       412     150038.        0.561981        0.807267         71007.2        0.194201E+22
       413     5.87500         2.72028        0.114941E-03     136.096        0.337373E+20          59     1.12494    
       414     150038.        0.269278         1.95205         2679.82        0.617259E+20
       415     150038.        0.312428         1.79098         19795.6        0.442538E+21
       416     150038.        0.384068         1.57075         35239.0        0.823722E+21
       417     150038.        0.454128         1.37451         48870.8        0.120519E+22
       418     150038.        0.519594         1.20927         60931.0        0.158718E+22
       419     150038.        0.581531         1.07213         71682.4        0.197007E+22
       420     5.87500         2.38942        0.175148E-03     268.553        0.617259E+20          60     1.49494    
       421     150038.        0.289105         2.17458         4151.03        0.956371E+20
       422     150038.        0.335510         1.99997         21148.7        0.476471E+21
       423     150038.        0.407821         1.76210         36429.8        0.857671E+21
       424     150038.        0.477851         1.54900         49916.5        0.123916E+22
       425     150038.        0.542989         1.36884         61854.4        0.162116E+22
       426     150038.        0.604287         1.21899         72503.7        0.200403E+22
       427     5.87500         2.10540        0.229693E-03     454.096        0.956371E+20          61     1.67890    
       428     150038.        0.297900         2.26793         5735.22        0.132251E+21
       429     150038.        0.349905         2.06997         22600.9        0.513103E+21
       430     150038.        0.423221         1.82246         37709.5        0.894310E+21
       431     150038.        0.493694         1.60284         51042.7        0.127581E+22
       432     150038.        0.559381         1.41753         62851.3        0.165783E+22
       433     150038.        0.621301         1.26357         73392.8        0.204068E+22
       434     5.87500         1.86087        0.273511E-03     685.537        0.132251E+21          62     1.74071    
       435     150038.        0.313597         2.14957         7310.25        0.168738E+21
       436     150038.        0.369506         1.96057         24038.6        0.549602E+21
       437     150038.        0.443412         1.73120         38977.6        0.930810E+21
       438     150038.        0.513749         1.52769         52160.8        0.131231E+22
       439     150038.        0.579056         1.35567         63843.0        0.169434E+22
       440     150038.        0.640351         1.21264         74279.7        0.207720E+22
       441     5.87500         1.68550        0.296365E-03     947.886        0.168738E+21          63     1.65621    
       442     150038.        0.320150         1.99013         8786.46        0.203057E+21
       443     150038.        0.380103         1.80465         25381.6        0.583929E+21
       444     150038.        0.454315         1.59288         40163.7        0.965133E+21
       445     150038.        0.524512         1.40646         53208.5        0.134664E+22
       446     150038.        0.589761         1.24917         64774.5        0.172867E+22
       447     150038.        0.651039         1.11853         75115.1        0.211155E+22
       448     5.87500         1.55725        0.300720E-03     1222.85        0.203057E+21          64     1.52696    
       449     150038.        0.332406         1.74263         10117.5        0.234051E+21
       450     150038.        0.395365         1.57911         26588.4        0.614925E+21
       451     150038.        0.470006         1.39677         41230.2        0.996122E+21
       452     150038.        0.540052         1.23639         54152.2        0.137762E+22
       453     150038.        0.604938         1.10097         65615.3        0.175967E+22
       454     150038.        0.665644        0.988455         75871.2        0.214258E+22
       455     5.87500         1.46751        0.288209E-03     1493.93        0.234051E+21          65     1.34071    
       456     150038.        0.337087         1.51779         11280.3        0.261221E+21
       457     150038.        0.402426         1.37031         27640.6        0.642096E+21
       458     150038.        0.476965         1.21190         42161.2        0.102328E+22
       459     150038.        0.546642         1.07332         54977.2        0.140477E+22
       460     150038.        0.611232        0.956458         66352.0        0.178684E+22
       461     150038.        0.671673        0.859437         76535.8        0.216982E+22
       462     5.87500         1.40129        0.265824E-03     1748.83        0.261221E+21          66     1.16486    
       463     150038.        0.344399         1.28505         12280.0        0.284574E+21
       464     150038.        0.411601         1.15890         28543.0        0.665446E+21
       465     150038.        0.486210         1.02598         42960.1        0.104662E+22
       466     150038.        0.555632        0.909895         55686.1        0.142811E+22
       467     150038.        0.619887        0.812009         66986.5        0.181022E+22
       468     150038.        0.679900        0.730756         77109.8        0.219328E+22
       469     5.87500         1.35354        0.237510E-03     1980.29        0.284574E+21          67    0.987091    
       470     150038.        0.347476         1.08506         13125.5        0.304355E+21
       471     150038.        0.415965        0.976392         29305.2        0.685224E+21
       472     150038.        0.490339        0.864376         43635.5        0.106639E+22
       473     150038.        0.559383        0.766882         56286.4        0.144788E+22
       474     150038.        0.623323        0.684737         67525.1        0.183005E+22
       475     150038.        0.683041        0.616593         77598.5        0.221322E+22
       476     5.87500         1.31693        0.207761E-03     2184.97        0.304355E+21          68    0.832335    
       477     150038.        0.352521        0.899933         13833.8        0.320922E+21
       478     150038.        0.422090        0.809268         29943.0        0.701788E+21
       479     150038.        0.496430        0.716899         44201.3        0.108296E+22
       480     150038.        0.565255        0.636604         56790.2        0.146446E+22
       481     150038.        0.628938        0.568956         67978.5        0.184671E+22
       482     150038.        0.688339        0.512851         78011.0        0.223000E+22
       483     5.87500         1.29071        0.178212E-03     2362.36        0.320922E+21          69    0.690748    
       484     150038.        0.355151        0.742482         14420.0        0.334645E+21
       485     150038.        0.425465        0.666794         30470.6        0.715512E+21
       486     150038.        0.499648        0.590686         44670.2        0.109669E+22
       487     150038.        0.568253        0.524665         57208.7        0.147823E+22
       488     150038.        0.631765        0.469072         68356.5        0.186058E+22
       489     150038.        0.691006        0.422989         78355.6        0.224399E+22
       490     5.87500         1.27160        0.150308E-03     2513.32        0.334645E+21          70    0.569444    
       491     150038.        0.359398        0.601534         14900.0        0.345872E+21
       492     150038.        0.430358        0.539987         30902.7        0.726747E+21
       493     150038.        0.504546        0.478544         45054.9        0.110795E+22
       494     150038.        0.573071        0.425289         57553.0        0.148953E+22
       495     150038.        0.636500        0.380450         68668.5        0.187200E+22
       496     150038.        0.695619        0.343292         78640.5        0.225551E+22
       497     5.87500         1.25967        0.124357E-03     2639.55        0.345872E+21          71    0.461513    
       498     150038.        0.363295        0.478181         15285.8        0.354896E+21
       499     150038.        0.434836        0.428914         31250.5        0.735790E+21
       500     150038.        0.509135        0.380109         45365.1        0.111702E+22
       501     150038.        0.577765        0.337863         57831.5        0.149866E+22
       502     150038.        0.641338        0.302306         68921.5        0.188125E+22
       503     150038.        0.700602        0.272852         78872.4        0.226486E+22
       504     5.87500         1.25582        0.100226E-03     2742.78        0.354896E+21          72    0.366702    
       505     150038.        0.369405        0.363334         15586.7        0.361919E+21
       506     150038.        0.441519        0.325792         31522.5        0.742845E+21
       507     150038.        0.516129        0.288774         45608.2        0.112411E+22
       508     150038.        0.585084        0.256749         58050.4        0.150581E+22
       509     150038.        0.649006        0.229801         69121.1        0.188850E+22
       510     150038.        0.708599        0.207485         79055.3        0.227219E+22
       511     5.87500         1.26097        0.771012E-04     2824.34        0.361919E+21          73    0.278654    
       512     150038.        0.352361        0.250385         15806.5        0.366687E+21
       513     150038.        0.422975        0.224598         31722.1        0.747656E+21
       514     150038.        0.495198        0.199188         45787.2        0.112895E+22
       515     150038.        0.561465        0.177197         58212.3        0.151072E+22
       516     150038.        0.622565        0.158685         69269.2        0.189350E+22
       517     150038.        0.679298        0.143354         79191.5        0.227724E+22
       518     5.87500         1.18478        0.537481E-04     2884.61        0.366687E+21          74    0.192233    
       519     150038.        0.166315        0.403572         143.679        0.256791E+19
       520     150038.        0.262632        0.370849         17457.6        0.383302E+21
       521     150038.        0.330789        0.323817         33185.8        0.764390E+21
       522     150038.        0.397928        0.281953         47072.8        0.114577E+22
       523     150038.        0.460369        0.246836         59347.2        0.152768E+22
       524     150030.        0.519316        0.217748         70277.9        0.191058E+22
       525     1.00000         2.14891        0.270055E-04     12.3141        0.256791E+19          75    0.307463    
       526     150038.        0.208313        0.849995         590.486        0.107096E+20
       527     150038.        0.248337        0.779376         17869.4        0.391469E+21
       528     150038.        0.314931        0.680197         33547.5        0.772597E+21
       529     150038.        0.379988        0.592149         47389.3        0.115401E+22
       530     150038.        0.440238        0.518326         59626.1        0.153596E+22
       531     150030.        0.496963        0.457198         70525.2        0.191887E+22
       532     1.00000         2.54586        0.592649E-04     51.6226        0.107096E+20          76    0.646207    
       533     150038.        0.205057         1.53683         1441.54        0.257575E+20
       534     150038.        0.241874         1.42107         18656.3        0.406544E+21
       535     150038.        0.306279         1.24768         34238.8        0.787704E+21
       536     150038.        0.368154         1.09167         47994.7        0.116915E+22
       537     150038.        0.424636        0.960031         60159.2        0.155112E+22
       538     150030.        0.477133        0.850635         70997.7        0.193403E+22
       539     1.00000         2.22538        0.116923E-03     131.739        0.257575E+20          77     1.18466    
       540     150038.        0.212399         2.08585         2733.48        0.478214E+20
       541     150038.        0.253855         1.91488         19848.0        0.428633E+21
       542     150038.        0.319665         1.67911         35285.8        0.809818E+21
       543     150038.        0.382590         1.46867         48911.9        0.119129E+22
       544     150038.        0.440298         1.29134         60967.1        0.157328E+22
       545     150030.        0.494186         1.14410         71714.3        0.195617E+22
       546     1.00000         1.98666        0.178176E-03     266.530        0.478214E+20          78     1.59733    
       547     150038.        0.228081         2.33756         4310.56        0.747054E+20
       548     150038.        0.272995         2.14900         21298.5        0.455540E+21
       549     150038.        0.339318         1.89174         36561.5        0.836739E+21
       550     150038.        0.402168         1.66105         50031.2        0.121823E+22
       551     150038.        0.459694         1.46592         61954.5        0.160023E+22
       552     150030.        0.513276         1.30358         72591.6        0.198310E+22
       553     1.00000         1.78054        0.231368E-03     454.227        0.747054E+20          79     1.80148    
       554     150038.        0.236520         2.43010         6010.55        0.103756E+21
       555     150038.        0.287127         2.21408         22855.0        0.484608E+21
       556     150038.        0.354852         1.94585         37931.2        0.865815E+21
       557     150038.        0.418674         1.70793         51234.7        0.124731E+22
       558     150038.        0.477390         1.50715         63017.7        0.162933E+22
       559     150030.        0.532345         1.34034         73538.0        0.201219E+22
       560     1.00000         1.60072        0.271657E-03     685.528        0.103756E+21          80     1.85758    
       561     150038.        0.249914         2.29707         7695.71        0.132662E+21
       562     150038.        0.304388         2.08848         24389.3        0.513526E+21
       563     150038.        0.372695         1.83905         39281.4        0.894734E+21
       564     150038.        0.436588         1.61812         52422.1        0.127624E+22
       565     150038.        0.495354         1.43147         64068.1        0.165827E+22
       566     150030.        0.550298         1.27632         74474.6        0.204112E+22
       567     1.00000         1.46863        0.290622E-03     944.289        0.132662E+21          81     1.75842    
       568     150038.        0.256707         2.11620         9269.12        0.159795E+21
       569     150038.        0.315300         1.91091         25815.4        0.540667E+21
       570     150038.        0.384368         1.68069         40536.8        0.921871E+21
       571     150038.        0.448711         1.47854         53527.3        0.130338E+22
       572     150038.        0.508107         1.30812         65047.2        0.168541E+22
       573     150030.        0.563809         1.16667         75349.5        0.206828E+22
       574     1.00000         1.37203        0.291731E-03     1212.35        0.159795E+21          82     1.61019    
       575     150038.        0.267291         1.84974         10682.9        0.184256E+21
       576     150038.        0.328732         1.66735         27091.2        0.565131E+21
       577     150038.        0.398244         1.46839         41659.8        0.946327E+21
       578     150038.        0.462653         1.29403         54516.8        0.132783E+22
       579     150038.        0.522076         1.14700         65925.0        0.170988E+22
       580     150030.        0.577733         1.02497         76135.3        0.209279E+22
       581     1.00000         1.30287        0.277468E-03     1474.24        0.184256E+21          83     1.40858    
       582     150038.        0.272358         1.60511         11914.8        0.205665E+21
       583     150038.        0.336242         1.44056         28199.6        0.586540E+21
       584     150038.        0.406035         1.26776         42635.9        0.967726E+21
       585     150038.        0.470560         1.11720         55377.7        0.134922E+22
       586     150038.        0.530238        0.990443         66690.0        0.173129E+22
       587     150030.        0.586232        0.885354         76822.0        0.211427E+22
       588     1.00000         1.25287        0.254213E-03     1718.77        0.205665E+21          84     1.21774    
       589     150038.        0.278855         1.35686         12971.0        0.224038E+21
       590     150038.        0.344397         1.21563         29147.0        0.604911E+21
       591     150038.        0.414277         1.07032         43470.3        0.986087E+21
       592     150038.        0.478710        0.944017         56114.2        0.136757E+22
       593     150038.        0.538328        0.837720         67345.4        0.174968E+22
       594     150030.        0.594247        0.749632         77411.5        0.213275E+22
       595     1.00000         1.21542        0.226111E-03     1939.57        0.224038E+21          85     1.02903    
       596     150038.        0.282360         1.14239         13862.4        0.239582E+21
       597     150038.        0.349249         1.02081         29945.0        0.620451E+21
       598     150038.        0.419183        0.898424         44173.4        0.100162E+22
       599     150038.        0.483599        0.792423         56735.5        0.138311E+22
       600     150038.        0.543300        0.703307         67899.6        0.176527E+22
       601     150030.        0.599352        0.629517         77911.4        0.214845E+22
       602     1.00000         1.18811        0.196911E-03     2133.97        0.239582E+21          86    0.864480    
       603     150038.        0.286917        0.946704         14607.6        0.252591E+21
       604     150038.        0.354742        0.845046         30611.2        0.633457E+21
       605     150038.        0.424667        0.743961         44760.8        0.101463E+22
       606     150038.        0.488990        0.656544         57255.3        0.139613E+22
       607     150038.        0.548630        0.583077         68364.5        0.177838E+22
       608     150030.        0.604609        0.522268         78331.6        0.216167E+22
       609     1.00000         1.16768        0.168486E-03     2301.85        0.252591E+21          87    0.716268    
       610     150038.        0.289866        0.780496         15224.0        0.263377E+21
       611     150038.        0.358486        0.695584         31161.7        0.644243E+21
       612     150038.        0.428458        0.612223         45246.9        0.102543E+22
       613     150038.        0.492811        0.540294         57686.4        0.140696E+22
       614     150038.        0.552557        0.479885         68751.2        0.178931E+22
       615     150030.        0.608669        0.429917         78681.9        0.217272E+22
       616     1.00000         1.15426        0.141880E-03     2444.44        0.263377E+21          88    0.589734    
       617     150038.        0.293776        0.633027         15728.6        0.272219E+21
       618     150038.        0.362959        0.563789         31612.4        0.653093E+21
       619     150038.        0.432966        0.496314         45645.4        0.103430E+22
       620     150038.        0.497332        0.438152         58040.7        0.141588E+22
       621     150038.        0.557126        0.389317         69070.0        0.179835E+22
       622     150030.        0.613279        0.348938         78971.2        0.218186E+22
       623     1.00000         1.14568        0.117423E-03     2563.57        0.272219E+21          89    0.478257    
       624     150038.        0.297887        0.506152         16135.5        0.279382E+21
       625     150038.        0.367709        0.450349         31976.3        0.660277E+21
       626     150038.        0.437982        0.396382         45967.7        0.104151E+22
       627     150038.        0.502645        0.349928         58327.9        0.142314E+22
       628     150038.        0.562799        0.310943         69329.2        0.180573E+22
       629     150030.        0.619326        0.278725         79206.8        0.218934E+22
       630     1.00000         1.14620        0.951448E-04     2661.26        0.279382E+21          90    0.382080    
       631     150038.        0.303321        0.397711         16458.6        0.285138E+21
       632     150038.        0.373652        0.353697         32265.8        0.666065E+21
       633     150038.        0.444231        0.311331         46224.5        0.104733E+22
       634     150038.        0.509254        0.274889         58557.5        0.142903E+22
       635     150038.        0.569824        0.244313         69536.9        0.181172E+22
       636     150030.        0.626771        0.219055         79395.9        0.219541E+22
       637     1.00000         1.15269        0.756898E-04     2739.80        0.285138E+21          91    0.300166    
       638     150038.        0.301637        0.317399         16714.5        0.289694E+21
       639     150038.        0.371985        0.282125         32495.8        0.670664E+21
       640     150038.        0.442224        0.248315         46428.9        0.105196E+22
       641     150038.        0.506865        0.219253         58740.7        0.143373E+22
       642     150038.        0.567056        0.194878         69702.9        0.181651E+22
       643     150030.        0.623619        0.174749         79547.2        0.220025E+22
       644     1.00000         1.13608        0.609197E-04     2802.67        0.289694E+21          92    0.239453    
       645     150038.        0.288680        0.231794         16911.5        0.292869E+21
       646     150038.        0.357862        0.206100         32673.3        0.673886E+21
       647     150038.        0.426258        0.181479         46587.2        0.105521E+22
       648     150038.        0.488797        0.160309         58883.1        0.143704E+22
       649     150038.        0.546750        0.142549         69831.9        0.181990E+22
       650     150030.        0.601017        0.127881         79664.9        0.220367E+22
       651     1.00000         1.07337        0.449261E-04     2851.47        0.292869E+21          93    0.175019    
       652    0.226484E+07    0.000000        0.000000        0.000000        0.000000    
       653    0.178630E+07    0.000000        0.000000        0.000000        0.000000    
       654    0.115301E+07    0.000000        0.000000        0.000000        0.000000    
       655    0.528933E+07    0.000000        0.000000        0.000000        0.000000    
       656    0.989366E+07    0.000000        0.000000        0.000000        0.000000    
       657    0.718356E+07    0.000000        0.000000        0.000000        0.000000    
       658    0.114919E+07    0.000000        0.000000        0.000000        0.000000    
       659    0.319449E+07    0.000000        0.000000        0.000000        0.000000    
       660    0.222387E+07    0.000000        0.000000        0.000000        0.000000    
       661    0.698795E+07    0.000000        0.000000        0.000000        0.000000    
       662    0.486472E+07    0.000000        0.000000        0.000000        0.000000    
       663    0.132157E+07    0.000000        0.000000        0.000000        0.000000    
       664    0.172517E+07    0.000000        0.000000        0.000000        0.000000    
       665    0.265937E+07    0.000000        0.000000        0.000000        0.000000    
       666    0.265937E+07    0.000000        0.000000        0.000000        0.000000    
       667    0.265937E+07    0.000000        0.000000        0.000000        0.000000    
       668    0.279766E+07    0.000000        0.000000        0.000000        0.000000    
       669    0.323458E+07    0.000000        0.000000        0.000000        0.000000    
       670    0.152656E+07    0.000000        0.000000        0.000000        0.000000    
       671    0.186474E+07    0.000000        0.000000        0.000000        0.000000    
       672    0.186474E+07    0.000000        0.000000        0.000000        0.000000    
       673    0.186474E+07    0.000000        0.000000        0.000000        0.000000    
       674    0.186474E+07    0.000000        0.000000        0.000000        0.000000    
       675    0.186474E+07    0.000000        0.000000        0.000000        0.000000    
       676    0.186474E+07    0.000000        0.000000        0.000000        0.000000    
       677    0.186474E+07    0.000000        0.000000        0.000000        0.000000    
       678    0.186474E+07    0.000000        0.000000        0.000000        0.000000    
       679    0.186474E+07    0.000000        0.000000        0.000000        0.000000    
       680    0.186959E+07    0.000000        0.000000        0.000000        0.000000    
       681    0.620683E+07    0.000000        0.000000        0.000000        0.000000    
       682    0.956791E+07    0.000000        0.000000        0.000000        0.000000    
       683    0.956791E+07    0.000000        0.000000        0.000000        0.000000    
       684    0.956791E+07    0.000000        0.000000        0.000000        0.000000    
       685    0.541048E+07    0.000000        0.000000        0.000000        0.000000    
       686    0.116447E+08    0.000000        0.000000        0.000000        0.000000    
       687    0.179505E+08    0.000000        0.000000        0.000000        0.000000    
       688    0.179505E+08    0.000000        0.000000        0.000000        0.000000    
       689    0.179505E+08    0.000000        0.000000        0.000000        0.000000    
       690    0.101507E+08    0.000000        0.000000        0.000000        0.000000    
       691    0.597882E+07    0.000000        0.000000        0.000000        0.000000    
       692    0.921642E+07    0.000000        0.000000        0.000000        0.000000    
       693    0.921643E+07    0.000000        0.000000        0.000000        0.000000    
       694    0.921643E+07    0.000000        0.000000        0.000000        0.000000    
       695    0.521172E+07    0.000000        0.000000        0.000000        0.000000    
       696    0.584019E+07    0.000000        0.000000        0.000000        0.000000    
       697    0.764069E+07    0.000000        0.000000        0.000000        0.000000    
       698    0.764069E+07    0.000000        0.000000        0.000000        0.000000    
       699    0.764069E+07    0.000000        0.000000        0.000000        0.000000    
       700    0.133419E+08    0.000000        0.000000        0.000000        0.000000    
       701    0.901637E+07    0.000000        0.000000        0.000000        0.000000    
       702    0.117461E+08    0.000000        0.000000        0.000000        0.000000    
       703    0.251540E+08    0.000000        0.000000        0.000000        0.000000    
       704    0.684945E+07    0.000000        0.000000        0.000000        0.000000    
       705    0.199836E+07    0.000000        0.000000        0.000000        0.000000    
       706    0.786926E+07    0.000000        0.000000        0.000000        0.000000    
       707    0.212401E+07    0.000000        0.000000        0.000000        0.000000    
       708    0.167587E+07    0.000000        0.000000        0.000000        0.000000    
       709    0.150848E+07    0.000000        0.000000        0.000000        0.000000    
       710    0.150848E+07    0.000000        0.000000        0.000000        0.000000    
       711    0.158477E+08    0.000000        0.000000        0.000000        0.000000    
       712    0.692000E+07    0.000000        0.000000        0.000000        0.000000    
       713    0.692000E+07    0.000000        0.000000        0.000000        0.000000    
       714    0.923267E+07    0.000000        0.000000        0.000000        0.000000    
       715    0.345628E+07    0.000000        0.000000        0.000000        0.000000    
       716    0.384870E+07    0.000000        0.000000        0.000000        0.000000    
       717    0.158081E+09    0.000000        0.000000        0.000000        0.000000    
       718    0.214229E+08    0.000000        0.000000        0.000000        0.000000    
       719    0.167587E+07    0.000000        0.000000        0.000000        0.000000    
       720    0.212401E+07    0.000000        0.000000        0.000000        0.000000    
       721     798623.        0.000000        0.000000        0.000000        0.000000    
       722     555968.        0.000000        0.000000        0.000000        0.000000    
       723    0.206834E+07    0.000000        0.000000        0.000000        0.000000    
       724     532895.        0.000000        0.000000        0.000000        0.000000    
       725     798623.        0.000000        0.000000        0.000000        0.000000    
       726     555968.        0.000000        0.000000        0.000000        0.000000    
       727    0.103044E+07    0.000000        0.000000        0.000000        0.000000    
       728    0.157079E+07    0.000000        0.000000        0.000000        0.000000    
       729    0.150848E+07    0.000000        0.000000        0.000000        0.000000    
       730    0.119835E+07    0.000000        0.000000        0.000000        0.000000    
       731     665364.        0.000000        0.000000        0.000000        0.000000    
       732     812761.        0.000000        0.000000        0.000000        0.000000    
       733     812761.        0.000000        0.000000        0.000000        0.000000    
       734     812761.        0.000000        0.000000        0.000000        0.000000    
       735     812761.        0.000000        0.000000        0.000000        0.000000    
       736     812761.        0.000000        0.000000        0.000000        0.000000    
       737     812761.        0.000000        0.000000        0.000000        0.000000    
       738     812761.        0.000000        0.000000        0.000000        0.000000    
       739     812761.        0.000000        0.000000        0.000000        0.000000    
       740     812761.        0.000000        0.000000        0.000000        0.000000    
       741     814876.        0.000000        0.000000        0.000000        0.000000    
